\STAR_ID                                  = "HD 147506"
\DATA_CATEGORY                            = "Planet Radial Velocity Curve"
\NUMBER_OF_POINTS                         = "63"
\TIME_REFERENCE_FRAME                     = "BJD"
\MINIMUM_DATE                             = "2454227.5016"
\DATE_UNITS                               = "days"
\MAXIMUM_DATE                             = "2454263.5852"
\MINIMUM_VALUE                            = "-21224.90"
\VALUE_UNITS                              = "m/s"
\MAXIMUM_VALUE                            = "-19401.40"
\REFERENCE                                = "Loeillet et al. 2008 (A&A, 481, 529)"
\BIBCODE                                  = "2008A&A...481..529L"
\TELESCOPE                                = "1.93m"
\INSTRUMENT                               = "SOPHIE"
\WAVELENGTH_CALIBRATION_TECHNIQUE         = "Thorium Argon"
\OBSERVATORY_SITE                         = "Observatoire de Haute Provence (OHP), France"
\COLUMN_RADIAL_VELOCITY                   = "Radial velocity relative to barycenter"
\COLUMN_RADIAL_VELOCITY_UNCERTAINTY       = "Uncertainty in RADIAL_VELOCITY"
|          BJD | Radial_Velocity | Radial_Velocity_Uncertainty |
|       double |          double |                      double |
|         days |             m/s |                         m/s |
  2454227.5016         -19401.40                          8.80
  2454227.6000         -19408.20                          6.50
  2454228.5842         -19558.10                         18.80
  2454229.5993         -20187.40                         16.10
  2454230.4475         -21224.90                         14.10
  2454230.6029         -20853.60                         14.80
  2454231.5987         -19531.10                         12.10
  2454235.3466         -20191.60                         15.60
  2454235.3538         -20231.80                         18.00
  2454235.3615         -20300.80                         16.70
  2454235.3692         -20279.00                         17.30
  2454235.3765         -20308.30                         17.20
  2454235.3866         -20388.90                         20.90
  2454235.3938         -20428.00                         17.10
  2454235.4011         -20437.00                         17.30
  2454235.4088         -20445.00                         16.30
  2454235.4161         -20453.00                         18.00
  2454235.4234         -20498.70                         15.00
  2454235.4310         -20519.70                         14.40
  2454235.4383         -20503.20                         15.70
  2454235.4456         -20531.80                         17.80
  2454235.4535         -20534.00                         18.20
  2454235.4608         -20499.00                         14.30
  2454235.4681         -20504.70                         12.40
  2454235.4759         -20474.70                         11.70
  2454235.4831         -20497.40                         11.30
  2454235.4904         -20536.40                         11.10
  2454235.4981         -20538.40                         11.10
  2454235.5054         -20548.40                         10.80
  2454235.5126         -20578.50                         13.50
  2454235.5204         -20602.90                         14.20
  2454235.5277         -20606.60                         15.30
  2454235.5350         -20594.60                         11.50
  2454235.5434         -20615.50                         11.80
  2454235.5507         -20598.70                         11.30
  2454235.5580         -20626.60                         11.00
  2454235.5682         -20668.30                         11.90
  2454235.5755         -20671.20                         12.30
  2454235.5827         -20658.50                         11.50
  2454235.5905         -20681.90                         10.80
  2454235.5978         -20700.20                         12.80
  2454235.6051         -20720.50                         11.70
  2454236.5190         -20220.70                          5.60
  2454263.4521         -20205.00                         15.70
  2454263.4594         -20188.00                         10.00
  2454263.4666         -20204.80                          8.90
  2454263.4739         -20188.70                          9.20
  2454263.4804         -20162.60                         11.40
  2454263.4860         -20175.00                         12.00
  2454263.4915         -20183.20                         12.80
  2454263.4971         -20142.90                          9.60
  2454263.5030         -20156.50                         10.20
  2454263.5086         -20161.50                         10.80
  2454263.5141         -20161.00                         10.40
  2454263.5236         -20181.00                         10.30
  2454263.5291         -20195.50                         15.10
  2454263.5347         -20304.60                         17.90
  2454263.5411         -20339.10                         27.70
  2454263.5561         -20345.70                         12.70
  2454263.5634         -20400.90                         13.30
  2454263.5706         -20416.90                         17.30
  2454263.5779         -20437.70                         10.70
  2454263.5852         -20476.30                          9.10
