\STAR_ID                                  = "HD 168443"
\DATA_CATEGORY                            = "Planet Radial Velocity Curve"
\NUMBER_OF_POINTS                         = "72"
\TIME_REFERENCE_FRAME                     = "HJD"
\MINIMUM_DATE                             = "2451296.843836"
\DATE_UNITS                               = "days"
\MAXIMUM_DATE                             = "2452162.542188"
\MINIMUM_VALUE                            = "-49389.70"
\VALUE_UNITS                              = "m/s"
\MAXIMUM_VALUE                            = "-48121.20"
\REFERENCE                                = "Udry et al. 2002 (A&A, 390, 267)"
\BIBCODE                                  = "2002A&A...390..267U"
\TELESCOPE                                = "1.2m Euler Swiss telescope"
\INSTRUMENT                               = "CORALIE"
\WAVELENGTH_CALIBRATION_TECHNIQUE         = "Thorium Argon"
\OBSERVATORY_SITE                         = "ESO La Silla, Chile"
\COLUMN_RADIAL_VELOCITY                   = "Radial velocity relative to barycenter"
\COLUMN_RADIAL_VELOCITY_UNCERTAINTY       = "Uncertainty in RADIAL_VELOCITY"
|            HJD | Radial_Velocity | Radial_Velocity_Uncertainty |
|         double |          double |                      double |
|           days |             m/s |                         m/s |
  2451296.843836         -48423.50                          4.00
  2451305.882174         -48415.90                          4.00
  2451342.808281         -48498.60                          6.00
  2451363.802276         -48378.20                         11.00
  2451367.768666         -48412.20                          6.00
  2451374.689954         -48564.20                          7.00
  2451381.662996         -49085.70                          4.00
  2451388.663245         -48940.50                          8.00
  2451394.610222         -48604.20                          4.00
  2451397.644442         -48514.40                          5.00
  2451401.619990         -48442.00                          4.00
  2451404.611977         -48397.20                          4.00
  2451424.624056         -48355.70                          6.00
  2451437.533679         -48788.10                          3.00
  2451444.513572         -49138.30                          7.00
  2451450.508979         -48648.40                          6.00
  2451463.495773         -48344.00                          6.00
  2451464.495077         -48331.00                          7.00
  2451465.493399         -48327.60                          7.00
  2451480.495623         -48269.80                         14.00
  2451481.499984         -48306.30                         10.00
  2451484.499880         -48311.00                         12.00
  2451486.502037         -48331.60                         22.00
  2451487.502885         -48343.30                         11.00
  2451488.501385         -48377.20                          9.00
  2451489.505176         -48401.30                         12.00
  2451490.503898         -48403.60                         17.00
  2451492.505084         -48520.60                         14.00
  2451493.503948         -48555.80                         14.00
  2451642.918207         -48161.90                          5.00
  2451675.861365         -49048.60                          5.00
  2451689.725861         -48250.20                          8.00
  2451692.822848         -48221.10                          7.00
  2451696.838458         -48154.70                          8.00
  2451700.755013         -48139.10                          6.00
  2451701.752535         -48130.40                          8.00
  2451750.613310         -48199.90                          7.00
  2451753.616099         -48153.60                          6.00
  2451757.620073         -48142.30                          8.00
  2451758.660838         -48121.80                         10.00
  2451759.631212         -48121.20                          6.00
  2451774.634486         -48142.40                          7.00
  2451780.552827         -48285.40                         10.00
  2451782.628076         -48342.20                         12.00
  2451787.642992         -48745.50                         12.00
  2451788.614517         -48845.30                          8.00
  2451789.585347         -48970.70                          5.00
  2451790.501308         -49038.10                          8.00
  2451791.546807         -49045.50                          9.00
  2451792.576981         -48983.00                          8.00
  2451806.630218         -48185.60                         13.00
  2451809.595687         -48182.60                          8.00
  2451812.545982         -48150.40                          4.00
  2451814.588263         -48134.60                          4.00
  2451844.498705         -48587.40                          8.00
  2451967.897917         -48972.50                          4.00
  2451970.900010         -48672.80                          8.00
  2451973.893195         -48507.80                          4.00
  2452048.821789         -48323.10                          5.00
  2452052.780179         -48309.90                          9.00
  2452072.765979         -48569.50                          4.00
  2452075.756481         -48746.40                          4.00
  2452085.808716         -48975.40                          6.00
  2452134.696567         -48908.60                          4.00
  2452136.673998         -49131.40                          4.00
  2452140.669680         -49389.70                          5.00
  2452141.653078         -49303.90                          4.00
  2452142.658012         -49207.80                          4.00
  2452143.664196         -49104.00                          3.00
  2452144.673989         -49002.90                          4.00
  2452145.591174         -48955.70                          3.00
  2452162.542188         -48536.90                          3.00
