\STAR_ID                                  = "HD 23596"
\DATA_CATEGORY                            = "Planet Radial Velocity Curve"
\NUMBER_OF_POINTS                         = "39"
\TIME_REFERENCE_FRAME                     = "BJD"
\MINIMUM_DATE                             = "2450824.4283"
\DATE_UNITS                               = "days"
\MAXIMUM_DATE                             = "2452681.3739"
\MINIMUM_VALUE                            = "-10205.00"
\VALUE_UNITS                              = "m/s"
\MAXIMUM_VALUE                            = "-9968.00"
\REFERENCE                                = "Perrier et al. 2003 (A&A, 410, 1039)"
\BIBCODE                                  = "2003A&A...410.1039P"
\TELESCOPE                                = "1.93m"
\INSTRUMENT                               = "ELODIE"
\WAVELENGTH_CALIBRATION_TECHNIQUE         = "Thorium Argon"
\OBSERVATORY_SITE                         = "Observatoire de Haute Provence (OHP), France"
\COLUMN_RADIAL_VELOCITY                   = "Radial velocity relative to barycenter"
\COLUMN_RADIAL_VELOCITY_UNCERTAINTY       = "Uncertainty in RADIAL_VELOCITY"
|          BJD | Radial_Velocity | Radial_Velocity_Uncertainty |
|       double |          double |                      double |
|         days |             m/s |                         m/s |
  2450824.4283         -10113.00                          8.00
  2450890.3151         -10125.00                          9.00
  2451237.2793         -10205.00                          8.00
  2451445.6719         -10192.00                          8.00
  2451507.5234         -10176.00                          8.00
  2451509.5354         -10179.00                          8.00
  2451541.3906         -10156.00                          9.00
  2451557.4237         -10134.00                          9.00
  2451560.4185         -10129.00                          9.00
  2451585.3460         -10109.00                          9.00
  2451590.3318         -10086.00                          8.00
  2451789.6230          -9968.00                          9.00
  2451804.6589          -9969.00                         10.00
  2451806.6810          -9975.00                          9.00
  2451835.6152          -9972.00                          9.00
  2451852.5720          -9974.00                         10.00
  2451856.5682          -9978.00                         10.00
  2451883.4959          -9978.00                          9.00
  2451906.4992          -9997.00                          9.00
  2451908.4934          -9985.00                         10.00
  2451955.3868          -9981.00                          9.00
  2451980.3176          -9991.00                          9.00
  2452159.6583         -10035.00                          9.00
  2452162.6420         -10044.00                         11.00
  2452193.6484         -10033.00                          8.00
  2452197.6269         -10042.00                          9.00
  2452214.5667         -10048.00                         10.00
  2452218.5662         -10050.00                          9.00
  2452247.5297         -10059.00                          9.00
  2452278.3934         -10087.00                          8.00
  2452280.3936         -10096.00                          8.00
  2452308.3563         -10083.00                          8.00
  2452358.3043         -10092.00                         12.00
  2452358.3168         -10092.00                         13.00
  2452533.6425         -10155.00                          9.00
  2452597.5140         -10169.00                          9.00
  2452612.4651         -10149.00                         11.00
  2452612.4843         -10175.00                          9.00
  2452681.3739         -10192.00                          8.00
