\STAR_ID                                  = "HD 217107"
\DATA_CATEGORY                            = "Planet Radial Velocity Curve"
\NUMBER_OF_POINTS                         = "63"
\TIME_REFERENCE_FRAME                     = "BJD"
\MINIMUM_DATE                             = "2451067.710221"
\DATE_UNITS                               = "days"
\MAXIMUM_DATE                             = "2451538.532235"
\MINIMUM_VALUE                            = "-13553.00"
\VALUE_UNITS                              = "m/s"
\MAXIMUM_VALUE                            = "-13252.00"
\REFERENCE                                = "Naef et al. 2001 (A&A, 375, 205)"
\BIBCODE                                  = "2001A&A...375..205N"
\TELESCOPE                                = "1.2m Euler Swiss telescope"
\INSTRUMENT                               = "CORALIE"
\WAVELENGTH_CALIBRATION_TECHNIQUE         = "Thorium Argon"
\OBSERVATORY_SITE                         = "ESO La Silla, Chile"
\COLUMN_RADIAL_VELOCITY                   = "Radial velocity relative to barycenter"
\COLUMN_RADIAL_VELOCITY_UNCERTAINTY       = "Uncertainty in RADIAL_VELOCITY"
|            BJD | Radial_Velocity | Radial_Velocity_Uncertainty |
|         double |          double |                      double |
|           days |             m/s |                         m/s |
  2451067.710221         -13359.00                         16.00
  2451068.720838         -13464.00                          9.00
  2451111.568762         -13455.00                          8.00
  2451111.578958         -13459.00                          8.00
  2451116.577986         -13313.00                          7.00
  2451122.529383         -13438.00                          8.00
  2451123.609661         -13319.00                          9.00
  2451130.582559         -13324.00                          8.00
  2451133.572293         -13535.00                          9.00
  2451135.549109         -13544.00                          8.00
  2451137.580732         -13353.00                          9.00
  2451142.572792         -13553.00                          8.00
  2451364.827283         -13406.00                          8.00
  2451366.831493         -13252.00                          8.00
  2451374.878846         -13371.00                          8.00
  2451376.899173         -13523.00                         11.00
  2451381.835410         -13338.00                          8.00
  2451382.897890         -13484.00                          8.00
  2451383.867956         -13531.00                          8.00
  2451384.893221         -13512.00                          8.00
  2451385.866630         -13427.00                          8.00
  2451388.792288         -13325.00                          8.00
  2451392.790983         -13459.00                          8.00
  2451394.865517         -13258.00                          9.00
  2451395.789605         -13310.00                          8.00
  2451396.832957         -13452.00                          9.00
  2451398.836596         -13527.00                          8.00
  2451399.817568         -13470.00                          8.00
  2451400.799591         -13365.00                          9.00
  2451401.761613         -13275.00                          9.00
  2451402.702035         -13285.00                         10.00
  2451403.723917         -13424.00                          8.00
  2451406.777412         -13485.00                          9.00
  2451417.751040         -13395.00                          8.00
  2451418.773522         -13505.00                          8.00
  2451423.723525         -13272.00                          7.00
  2451424.800327         -13382.00                          9.00
  2451431.730285         -13348.00                          8.00
  2451433.675537         -13526.00                          8.00
  2451435.623851         -13469.00                          8.00
  2451437.578350         -13252.00                          9.00
  2451439.701323         -13462.00                          8.00
  2451440.710031         -13538.00                          9.00
  2451443.711860         -13346.00                          9.00
  2451447.669548         -13532.00                         10.00
  2451449.676241         -13471.00                          8.00
  2451451.633068         -13265.00                          8.00
  2451455.754171         -13540.00                         14.00
  2451458.641837         -13280.00                          9.00
  2451463.605338         -13485.00                          9.00
  2451464.586741         -13393.00                          9.00
  2451480.624376         -13267.00                         13.00
  2451481.564973         -13348.00                          9.00
  2451482.558610         -13472.00                         11.00
  2451484.611847         -13537.00                         11.00
  2451486.596520         -13329.00                         17.00
  2451487.573555         -13262.00                         10.00
  2451488.559663         -13331.00                         10.00
  2451489.540088         -13457.00                         10.00
  2451496.561519         -13442.00                         11.00
  2451499.529923         -13461.00                         11.00
  2451534.535316         -13508.00                          8.00
  2451538.532235         -13340.00                         14.00
