\STAR_ID='HD 20630'
\DATA_CATEGORY='Planet Radial Velocity Curve'
\NUMBER_OF_POINTS='25'
\TIME_REFERENCE_FRAME='HJD'
\MINIMUM_DATE='2447046.9572'
\DATE_UNITS='days'
\MAXIMUM_DATE='2449622.9031'
\MINIMUM_VALUE='-54.1800003'
\VALUE_UNITS='m/s'
\MAXIMUM_VALUE='42.5'
\REFERENCE='Howard & Fulton, 2016'
\BIBCODE='2016arXiv160603134H'
\TELESCOPE='3.0m Shane'
\INSTRUMENT='p: Hamilton Spectrograph dewar 16 (prior to November 1994)'
\WAVELENGTH_CALIBRATION_TECHNIQUE='Iodine'
\OBSERVATORY_SITE='Lick Observatory, California'
\COLUMN_RADIAL_VELOCITY='Relative radial velocity'
\COLUMN_RADIAL_VELOCITY_UNCERTAINTY='Uncertainty in RADIAL_VELOCITY'
|          HJD|Radial_Velocity|Radial_Velocity_Uncertainty|
|       double|         double|                     double|
|         days|          m / s|                      m / s|
|         null|           null|                       null|
  2447046.9572       4.0300002                   9.3599997 
 2447093.82265           -9.04                   8.1300001 
 2447149.87947      13.8299999                  12.9500008 
 2447194.69361      -5.9299998                   10.710001 
  2447223.6662      12.1700001                   7.3499999 
  2447374.9763      25.3700008                  10.5699997 
  2447394.9893            42.5                   9.8800001 
   2447430.956      20.7600002                   9.3599997 
  2447578.6792       1.3099999                  11.1899986 
 2447793.94005           -2.21                   9.5900002 
  2447845.7818      -3.8599999                  12.1800003 
  2448114.0168           -1.64                  14.2299995 
 2448115.02424      -4.2399998                  14.1299992 
  2448199.8663      35.4900017                  13.7800007 
  2448645.8113      -9.1700001                       12.75 
  2448648.6955      -6.5900002                   7.5999999 
  2448848.0152      28.6399994                  11.0900002 
 2448893.87333      17.6299992                   7.2399993 
 2448906.93976      29.4300003                   3.6099999 
 2448934.90288      26.2399998                   8.4700003 
  2448992.7378     -14.4200001                  11.6000004 
  2449255.9875     -54.1800003                  10.8999987 
 2449299.82941       8.6199999                  10.4399996 
 2449349.71442     -10.2299995                   9.7299986 
  2449622.9031     -46.2900009                  10.1000004 
