\STAR_ID                            = "WASP-52"
\DATA_CATEGORY                      = "Planet Radial Velocity Curve"
\NUMBER_OF_POINTS                   = "48"
\TIME_REFERENCE_FRAME               = "BJD-UTC"
\MINIMUM_DATE                       = "2455485.353100"
\MAXIMUM_DATE                       = "2455795.536400"
\DATE_UNITS                         = "days"
\MINIMUM_VALUE                      = "-1145.0"
\MAXIMUM_VALUE                      = "-821.0"
\VALUE_UNITS                        = "m/s"
\REFERENCE                          = "Hebrard et al. 2013 (2013, A&A, 549A, 134)"
\BIBCODE                            = "2013A&A...549A.134H"
\TELESCOPE                          = "1.93m OHP"
\INSTRUMENT                         = "SOPHIE"
\WAVELENGTH_CALIBRATION_TECHNIQUE   = "Emission Reference Spectrum (ThAr)"
\OBSERVATORY_SITE                   = "Observatoire de Haute Provence, France"
\COLUMN_JD                          = "Julian date of observation"
\COLUMN_RADIAL_VELOCITY             = "Radial velocity relative to barycenter"
\COLUMN_RADIAL_VELOCITY_UNCERTAINTY = "Uncertainty in RADIAL_VELOCITY"
|           Time | Radial_Velocity | Radial_Velocity_Uncertainty |
|         double |          double |                      double |
|           days |             m/s |                         m/s |
  2455485.353100           -821.00                         11.00
  2455486.405100           -953.00                         14.00
  2455488.358200           -883.00                         13.00
  2455489.371000           -934.00                         16.00
  2455519.350900          -1127.00                         12.00
  2455523.295000          -1079.00                         11.00
  2455524.320500          -1104.00                         15.00
  2455525.329200          -1001.00                         11.00
  2455527.310900           -963.00                         12.00
  2455529.386200          -1010.00                         10.00
  2455540.321500          -1145.00                         18.00
  2455559.249700          -1052.00                         10.00
  2455563.259800          -1100.00                         10.00
  2455564.239600           -969.00                         11.00
  2455579.247500          -1075.00                         12.00
  2455581.237000           -994.00                         12.00
  2455583.241700           -935.00                         15.00
  2455585.243700           -966.00                         11.00
  2455586.277000          -1068.00                         10.00
  2455588.246600           -983.00                         10.00
  2455745.574000           -935.00                         14.00
  2455753.607500           -982.00                         18.00
  2455760.601200           -984.00                         31.00
  2455763.572100           -850.00                         20.00
  2455764.572900           -979.00                         23.00
  2455766.577800           -916.00                         19.00
  2455768.538700           -886.00                         15.00
  2455771.590800           -982.00                         12.00
  2455773.579100           -914.00                         10.00
  2455795.367700           -902.00                         20.00
  2455795.380200           -913.00                         18.00
  2455795.390000           -894.00                         17.00
  2455795.399100           -878.00                         18.00
  2455795.408100           -917.00                         18.00
  2455795.416300           -856.00                         18.00
  2455795.423600           -904.00                         18.00
  2455795.431300           -902.00                         18.00
  2455795.441700           -948.00                         18.00
  2455795.450600           -975.00                         18.00
  2455795.460400           -882.00                         18.00
  2455795.469400           -904.00                         18.00
  2455795.479000           -911.00                         18.00
  2455795.487800           -911.00                         18.00
  2455795.496900           -906.00                         18.00
  2455795.506500           -903.00                         19.00
  2455795.516400           -901.00                         19.00
  2455795.526400           -912.00                         19.00
  2455795.536400           -914.00                         19.00
