\STAR_ID                                  = "HD 12661"
\DATA_CATEGORY                            = "Planet Radial Velocity Curve"
\NUMBER_OF_POINTS                         = "45"
\TIME_REFERENCE_FRAME                     = "JD"
\MINIMUM_DATE                             = "2451170.828"
\DATE_UNITS                               = "days"
\MAXIMUM_DATE                             = "2452536.949"
\MINIMUM_VALUE                            = "-96.85"
\VALUE_UNITS                              = "m/s"
\MAXIMUM_VALUE                            = "85.42"
\REFERENCE                                = "Fischer et al. 2003 (ApJ, 586, 1394)"
\BIBCODE                                  = "2003ApJ...586.1394F"
\TELESCOPE                                = "10m Keck I"
\INSTRUMENT                               = "HIRES"
\WAVELENGTH_CALIBRATION_TECHNIQUE         = "Iodine"
\OBSERVATORY_SITE                         = "Mauna Kea, Hawaii"
\COLUMN_JD                                = "Julian date of observation"
\COLUMN_RADIAL_VELOCITY                   = "Radial velocity relative to barycenter"
\COLUMN_RADIAL_VELOCITY_UNCERTAINTY       = "Uncertainty in RADIAL_VELOCITY"
|          JD | Radial_Velocity | Radial_Velocity_Uncertainty |
|      double |          double |                      double |
|        days |             m/s |                         m/s |
  2451170.828            -90.11                          3.40
  2451171.728            -92.88                          2.94
  2451172.831            -92.16                          3.38
  2451173.857            -94.34                          3.23
  2451226.751            -96.85                          2.98
  2451227.745            -95.41                          3.02
  2451228.723            -95.56                          2.97
  2451550.757             71.88                          3.14
  2451551.784             71.30                          2.79
  2451552.787             73.88                          4.10
  2451580.732             49.19                          3.11
  2451581.791             46.58                          3.08
  2451585.715             40.03                          3.17
  2451757.053            -39.53                          3.29
  2451883.920             27.89                          3.42
  2451898.973              6.64                          2.77
  2451899.880              8.57                          2.92
  2451900.858              6.64                          3.13
  2451973.712            -41.74                          2.74
  2452098.105             82.47                          3.92
  2452099.121             74.77                          3.57
  2452100.115             85.42                          4.22
  2452129.088             43.39                          3.31
  2452133.122             49.23                          3.68
  2452134.006             35.56                          3.56
  2452162.924             12.21                          3.50
  2452189.125             -8.05                          3.83
  2452219.036            -37.10                          3.53
  2452235.726            -55.21                          3.40
  2452236.822            -55.25                          3.14
  2452238.773            -55.17                          2.95
  2452241.675            -66.01                          5.75
  2452242.846            -61.49                          3.06
  2452299.649            -27.68                          3.75
  2452307.748             20.09                          2.42
  2452334.792             85.24                          2.61
  2452493.991            -88.25                          3.60
  2452508.996            -95.33                          4.09
  2452512.010            -88.46                          5.39
  2452512.991            -84.66                          4.06
  2452513.973            -90.72                          4.07
  2452515.136            -89.88                          3.20
  2452515.946            -88.80                          3.38
  2452535.940            -85.60                          3.31
  2452536.949            -85.90                          3.62
