\STAR_ID                                  = "GJ 777 A"
\DATA_CATEGORY                            = "Planet Radial Velocity Curve"
\NUMBER_OF_POINTS                         = "56"
\TIME_REFERENCE_FRAME                     = "BJD"
\MINIMUM_DATE                             = "2449611.4278"
\DATE_UNITS                               = "days"
\MAXIMUM_DATE                             = "2452598.2306"
\MINIMUM_VALUE                            = "-45377.00"
\VALUE_UNITS                              = "m/s"
\MAXIMUM_VALUE                            = "-45315.00"
\REFERENCE                                = "Naef et al. 2003 (A&A, 410, 1051)"
\BIBCODE                                  = "2003A&A...410.1051N"
\TELESCOPE                                = "1.93m"
\INSTRUMENT                               = "ELODIE"
\WAVELENGTH_CALIBRATION_TECHNIQUE         = "Thorium Argon"
\OBSERVATORY_SITE                         = "Observatoire de Haute Provence (OHP), France"
\COLUMN_RADIAL_VELOCITY                   = "Radial velocity relative to barycenter"
\COLUMN_RADIAL_VELOCITY_UNCERTAINTY       = "Uncertainty in RADIAL_VELOCITY"
|          BJD | Radial_Velocity | Radial_Velocity_Uncertainty |
|       double |          double |                      double |
|         days |             m/s |                         m/s |
  2449611.4278         -45377.00                         10.00
  2449851.6145         -45353.00                          8.00
  2449910.5039         -45334.00                          7.00
  2449974.4110         -45346.00                          7.00
  2450023.3041         -45339.00                          7.00
  2450264.6014         -45329.00                          8.00
  2450265.5452         -45333.00                          7.00
  2450326.4568         -45341.00                          7.00
  2450382.2709         -45325.00                          7.00
  2450648.6050         -45337.00                          7.00
  2450654.4226         -45315.00                          7.00
  2450675.5229         -45317.00                          7.00
  2450701.4311         -45331.00                          7.00
  2450731.3787         -45332.00                          7.00
  2450944.6034         -45329.00                          7.00
  2450970.6033         -45340.00                          7.00
  2451025.5148         -45344.00                          7.00
  2451035.5205         -45327.00                          7.00
  2451054.4288         -45358.00                          7.00
  2451123.3543         -45339.00                          8.00
  2451153.2283         -45353.00                          8.00
  2451353.5572         -45355.00                          7.00
  2451417.4383         -45365.00                          7.00
  2451506.2770         -45359.00                          8.00
  2451693.5662         -45352.00                          7.00
  2451755.4820         -45344.00                          8.00
  2451781.4686         -45376.00                          7.00
  2451802.4195         -45372.00                          8.00
  2451853.2751         -45358.00                          7.00
  2451908.2554         -45347.00                         11.00
  2452075.5758         -45349.00                          7.00
  2452080.5827         -45348.00                          7.00
  2452081.5915         -45355.00                          7.00
  2452111.5041         -45352.00                          7.00
  2452142.5406         -45366.00                          7.00
  2452158.4670         -45370.00                          7.00
  2452160.5008         -45370.00                          8.00
  2452164.3366         -45353.00                          8.00
  2452194.3754         -45357.00                          7.00
  2452196.3804         -45359.00                          7.00
  2452220.3583         -45359.00                          8.00
  2452247.2308         -45370.00                          7.00
  2452250.2645         -45350.00                         11.00
  2452360.6765         -45354.00                          7.00
  2452361.6715         -45354.00                          7.00
  2452454.5688         -45355.00                          7.00
  2452454.5814         -45339.00                          7.00
  2452480.5627         -45361.00                          7.00
  2452486.5041         -45356.00                          7.00
  2452513.5461         -45367.00                          8.00
  2452515.5449         -45376.00                         11.00
  2452532.3837         -45363.00                          7.00
  2452533.4095         -45371.00                          7.00
  2452565.3310         -45356.00                          7.00
  2452597.2346         -45361.00                          7.00
  2452598.2306         -45369.00                          7.00
