\STAR_ID                                  = "HD 142415"
\DATA_CATEGORY                            = "Planet Radial Velocity Curve"
\NUMBER_OF_POINTS                         = "137"
\TIME_REFERENCE_FRAME                     = "BJD"
\MINIMUM_DATE                             = "2451268.8546"
\DATE_UNITS                               = "days"
\MAXIMUM_DATE                             = "2452797.7308"
\MINIMUM_VALUE                            = "-11853.00"
\VALUE_UNITS                              = "m/s"
\MAXIMUM_VALUE                            = "-11748.00"
\REFERENCE                                = "Mayor et al. 2004 (A&A, 415, 391)"
\BIBCODE                                  = "2004A&A...415..391M"
\TELESCOPE                                = "1.2m Euler Swiss telescope"
\INSTRUMENT                               = "CORALIE"
\WAVELENGTH_CALIBRATION_TECHNIQUE         = "Thorium Argon"
\OBSERVATORY_SITE                         = "ESO La Silla, Chile"
\COLUMN_RADIAL_VELOCITY                   = "Radial velocity relative to barycenter"
\COLUMN_RADIAL_VELOCITY_UNCERTAINTY       = "Uncertainty in RADIAL_VELOCITY"
|          BJD | Radial_Velocity | Radial_Velocity_Uncertainty |
|       double |          double |                      double |
|         days |             m/s |                         m/s |
  2451268.8546         -11782.00                          5.00
  2451287.8299         -11792.00                          6.00
  2451287.8420         -11792.00                          6.00
  2451355.6742         -11818.00                          5.00
  2451386.6021         -11820.00                          6.00
  2451386.6142         -11827.00                          7.00
  2451398.5258         -11829.00                          6.00
  2451401.5064         -11839.00                          5.00
  2451404.5060         -11825.00                         10.00
  2451437.4956         -11853.00                          6.00
  2451621.8367         -11769.00                          7.00
  2451633.8366         -11754.00                          5.00
  2451634.8217         -11758.00                          7.00
  2451635.8028         -11776.00                          6.00
  2451640.8150         -11757.00                          6.00
  2451641.7829         -11784.00                          6.00
  2451642.7956         -11779.00                          6.00
  2451645.7924         -11769.00                          6.00
  2451646.8610         -11774.00                          5.00
  2451689.7577         -11803.00                          9.00
  2451698.7356         -11782.00                         10.00
  2451746.6397         -11787.00                         11.00
  2451749.5959         -11814.00                          5.00
  2451750.5747         -11809.00                          7.00
  2451753.5744         -11804.00                          6.00
  2451758.6197         -11783.00                         11.00
  2451774.5648         -11824.00                          6.00
  2451777.5467         -11829.00                          8.00
  2451780.5202         -11827.00                         11.00
  2451785.5120         -11824.00                          7.00
  2451786.5138         -11831.00                          7.00
  2451787.5463         -11833.00                          9.00
  2451806.5687         -11844.00                         11.00
  2451809.5319         -11838.00                          6.00
  2451811.5224         -11847.00                          8.00
  2451967.8770         -11780.00                          6.00
  2451971.8790         -11775.00                          5.00
  2451976.8911         -11781.00                          6.00
  2451979.8811         -11767.00                          5.00
  2451985.8917         -11777.00                          5.00
  2451985.9034         -11787.00                          5.00
  2452047.7333         -11797.00                          8.00
  2452047.7450         -11808.00                         11.00
  2452072.7029         -11815.00                          6.00
  2452072.7092         -11805.00                          6.00
  2452081.6003         -11801.00                          6.00
  2452085.6604         -11787.00                         12.00
  2452090.5804         -11777.00                         10.00
  2452090.5921         -11797.00                         10.00
  2452102.5813         -11785.00                         12.00
  2452105.6110         -11809.00                          6.00
  2452128.5384         -11812.00                          5.00
  2452128.5501         -11826.00                          5.00
  2452130.5848         -11807.00                          5.00
  2452130.5984         -11796.00                          5.00
  2452133.5261         -11830.00                          9.00
  2452133.5378         -11844.00                          9.00
  2452135.5182         -11817.00                          5.00
  2452135.5299         -11815.00                          5.00
  2452136.5898         -11825.00                          5.00
  2452136.6048         -11829.00                          6.00
  2452140.6165         -11806.00                          7.00
  2452140.6282         -11811.00                          8.00
  2452142.4921         -11814.00                          5.00
  2452142.5057         -11828.00                          5.00
  2452144.4794         -11812.00                          8.00
  2452144.4957         -11820.00                          7.00
  2452150.5654         -11825.00                          5.00
  2452150.5771         -11817.00                          6.00
  2452162.4944         -11800.00                          7.00
  2452168.5095         -11830.00                          6.00
  2452169.4978         -11827.00                         10.00
  2452170.4993         -11827.00                          6.00
  2452178.4892         -11845.00                          9.00
  2452303.8717         -11811.00                          7.00
  2452304.8659         -11787.00                         10.00
  2452305.8642         -11794.00                          4.00
  2452306.8335         -11787.00                          4.00
  2452307.8843         -11794.00                          4.00
  2452308.8781         -11776.00                          3.00
  2452309.8731         -11784.00                          5.00
  2452310.8813         -11778.00                          4.00
  2452311.8807         -11784.00                          4.00
  2452312.8835         -11795.00                          4.00
  2452315.8828         -11791.00                          5.00
  2452317.8668         -11768.00                          5.00
  2452318.8854         -11770.00                          4.00
  2452319.8803         -11763.00                          5.00
  2452321.8901         -11771.00                          4.00
  2452322.8787         -11777.00                          4.00
  2452353.8492         -11756.00                          4.00
  2452354.8157         -11748.00                          5.00
  2452355.8400         -11764.00                          4.00
  2452356.7970         -11770.00                          4.00
  2452357.8153         -11769.00                          4.00
  2452358.8843         -11767.00                          4.00
  2452359.7753         -11777.00                          4.00
  2452360.8322         -11776.00                          4.00
  2452361.7528         -11780.00                          4.00
  2452363.7555         -11787.00                          5.00
  2452364.9005         -11764.00                          7.00
  2452365.8601         -11752.00                          5.00
  2452366.8770         -11766.00                          5.00
  2452367.8276         -11771.00                          4.00
  2452373.8594         -11767.00                          5.00
  2452373.8737         -11765.00                          5.00
  2452396.9118         -11785.00                          5.00
  2452399.8689         -11797.00                          5.00
  2452433.6886         -11788.00                          6.00
  2452437.6969         -11780.00                          7.00
  2452439.5503         -11780.00                          5.00
  2452439.6055         -11798.00                          4.00
  2452440.6235         -11812.00                          6.00
  2452440.6371         -11802.00                          6.00
  2452443.6361         -11804.00                          6.00
  2452443.6499         -11799.00                          6.00
  2452446.6655         -11777.00                          5.00
  2452446.6798         -11777.00                          5.00
  2452454.6567         -11807.00                          6.00
  2452467.6549         -11810.00                          6.00
  2452467.6684         -11791.00                          6.00
  2452486.5125         -11830.00                         11.00
  2452486.5266         -11808.00                         11.00
  2452488.5193         -11827.00                         10.00
  2452491.4966         -11795.00                          7.00
  2452495.5599         -11822.00                          5.00
  2452498.5305         -11802.00                          4.00
  2452687.8056         -11827.00                          5.00
  2452712.8422         -11759.00                          6.00
  2452756.8218         -11774.00                          8.00
  2452776.8374         -11781.00                          8.00
  2452776.8497         -11780.00                          9.00
  2452777.8635         -11779.00                          9.00
  2452777.8758         -11765.00                          9.00
  2452785.7347         -11801.00                          6.00
  2452797.6168         -11797.00                          5.00
  2452797.7308         -11778.00                         11.00
