\STAR_ID='HD 22049'
\DATA_CATEGORY='Planet Radial Velocity Curve'
\NUMBER_OF_POINTS='49'
\TIME_REFERENCE_FRAME='HJD'
\MINIMUM_DATE='2447046.96844'
\DATE_UNITS='days'
\MAXIMUM_DATE='2449622.88898'
\MINIMUM_VALUE='-34.3400001526'
\VALUE_UNITS='m/s'
\MAXIMUM_VALUE='49.3800010681'
\REFERENCE='Howard & Fulton, 2016'
\BIBCODE='2016arXiv160603134H'
\TELESCOPE='3.0m Shane'
\INSTRUMENT='p: Hamilton Spectrograph dewar 16 (prior to November 1994)'
\WAVELENGTH_CALIBRATION_TECHNIQUE='Iodine'
\OBSERVATORY_SITE='Lick Observatory, California'
\COLUMN_RADIAL_VELOCITY='Relative radial velocity'
\COLUMN_RADIAL_VELOCITY_UNCERTAINTY='Uncertainty in RADIAL_VELOCITY'
|          HJD|Radial_Velocity|Radial_Velocity_Uncertainty|
|       double|         double|                     double|
|         days|          m / s|                      m / s|
|         null|           null|                       null|
 2447046.96844   6.48000001907                   3.5600002 
  2447047.9299   20.8999996185                   8.3999996 
 2447048.91234   4.09000015259                   5.6500001 
 2447093.85357  -18.5300006866                   6.5500002 
 2447149.83989   9.39000034332                   6.8900003 
 2447181.71098  -34.3400001526                   9.1499996 
 2447182.74398  -8.65999984741                  12.5799999 
 2447193.67463  -17.7600002289                         3.2 
 2447194.67549  -17.3299999237                   4.5999999 
 2447223.64534  -13.2600002289                   3.1800001 
 2447374.98101   20.4599990845                        5.46 
  2447389.9831  -8.03999996185                   7.0900002 
  2447392.0074  -20.4300003052                   6.8799996 
 2447430.96775   5.88000011444                   4.0500002 
  2447431.8322   19.3999996185                        8.54 
 2447578.64117  -6.15999984741                        3.45 
  2447793.0239   23.3199996948                  10.8699999 
  2447793.9745   3.40000009537                        9.54 
  2447794.9337   17.9400005341                   9.0799999 
 2447845.81291  -25.7700004578                   6.4099998 
  2447846.9252  -12.0799999237                   8.3299999 
  2447919.6767  -19.8999996185                  10.4200001 
 2447964.64317   41.4199981689                  12.8000002 
  2448114.0086  -6.34000015259                   6.8600001 
  2448115.0105   9.86999988556                   8.1599998 
 2448199.87957  -21.8600006104                   6.0900002 
 2448200.83361  -4.63000011444                   5.9899998 
 2448648.68057            -2.0                   4.2399998 
 2448848.02279   26.9899997711                        5.02 
 2448857.98989   31.3700008392                   5.1599998 
 2448893.92582   31.6499996185                        6.02 
  2448894.9834   43.3499984741                   7.4999995 
  2448895.9854   49.3800010681                   7.7800002 
  2448899.9767   30.0900001526                   7.8099995 
  2448900.9611   27.2299995422                   9.3199997 
   2448902.008   17.6800003052                   8.9200001 
  2448903.0094   23.7800006866                   8.0200005 
   2448905.016   21.9599990845                   8.0200005 
 2448935.92315   21.0200004578                   7.6700001 
 2448991.81239   19.2199993134                   6.1300001 
 2448992.72041   24.7700004578                        4.04 
  2449256.0154   17.1100006104                  10.3599997 
 2449299.86943  -6.92000007629                   7.1900001 
 2449350.82398   7.65000009537                   7.0299997 
  2449569.9832            5.75                   7.9200006 
   2449572.962  -1.58000004292                   9.1700001 
  2449574.9639  -1.62999999523                   7.8499999 
 2449621.97316   1.94000005722                   6.5900002 
 2449622.88898   11.0100002289                   6.4799995 
