\STAR_ID='HD 142860'
\DATA_CATEGORY='Planet Radial Velocity Curve'
\NUMBER_OF_POINTS='27'
\TIME_REFERENCE_FRAME='HJD'
\MINIMUM_DATE='2446957.8336'
\DATE_UNITS='days'
\MAXIMUM_DATE='2449602.6543'
\MINIMUM_VALUE='-84.8799973'
\VALUE_UNITS='m/s'
\MAXIMUM_VALUE='129.8099976'
\REFERENCE='Howard & Fulton, 2016'
\BIBCODE='2016arXiv160603134H'
\TELESCOPE='3.0m Shane'
\INSTRUMENT='p: Hamilton Spectrograph dewar 16 (prior to November 1994)'
\WAVELENGTH_CALIBRATION_TECHNIQUE='Iodine'
\OBSERVATORY_SITE='Lick Observatory, California'
\COLUMN_RADIAL_VELOCITY='Relative radial velocity'
\COLUMN_RADIAL_VELOCITY_UNCERTAINTY='Uncertainty in RADIAL_VELOCITY'
|          HJD|Radial_Velocity|Radial_Velocity_Uncertainty|
|       double|         double|                     double|
|         days|          m / s|                      m / s|
|         null|           null|                       null|
  2446957.8336     129.8099976                  39.8199997 
  2447048.6758      47.7400017                  28.9500027 
 2447223.99479     -68.4732513                  17.4596806 
 2447330.88428     -12.9410477                   25.505764 
 2447352.80111      28.7973366                  22.5585155 
   2447374.776            0.94                  31.4599991 
  2447392.7664      36.3600006                  29.8099976 
   2447578.033     -84.8799973                  29.6599998 
  2447613.0313     -22.3299999                   39.779995 
  2447793.6584      32.7700005                  34.0900002 
  2447920.0395     -44.9799995                  29.5900002 
  2447965.0557     -51.8800011                  28.0100002 
 2448114.76432     120.8305511                  27.0890598 
 2448375.93496      51.9806175                  13.4284439 
 2448437.87133     110.2562637                   26.901022 
 2448746.98393      69.7409439                  26.5230656 
  2448781.9313             0.2                  30.6699982 
 2448832.70019      -5.6608253                  21.9218483 
    2448847.78     -61.2099991                  34.2099991 
 2448857.66307       3.8536057                  23.0669003 
 2449067.02853     -27.2210331                  20.2344494 
 2449096.95828      -3.0955491                  22.3873768 
 2449124.81961      14.4059172                  21.5057621 
 2449210.69305      13.0053902                  19.8378792 
  2449480.9398            3.29                  31.9900017 
  2449481.8489      34.4099998                  33.9799995 
  2449602.6543     100.0100021                  37.3699989 
