\STAR_ID                                  = "HD 213240"
\DATA_CATEGORY                            = "Planet Radial Velocity Curve"
\NUMBER_OF_POINTS                         = "72"
\TIME_REFERENCE_FRAME                     = "BJD"
\MINIMUM_DATE                             = "2451385.920088"
\DATE_UNITS                               = "days"
\MAXIMUM_DATE                             = "2452161.689162"
\MINIMUM_VALUE                            = "-586.00"
\VALUE_UNITS                              = "m/s"
\MAXIMUM_VALUE                            = "-358.00"
\REFERENCE                                = "Santos et al. 2001 (A&A, 379, 999)"
\BIBCODE                                  = "2001A&A...379..999S"
\TELESCOPE                                = "1.2m Euler Swiss telescope"
\INSTRUMENT                               = "CORALIE"
\WAVELENGTH_CALIBRATION_TECHNIQUE         = "Thorium Argon"
\OBSERVATORY_SITE                         = "ESO Las Silla, Chile"
\COLUMN_RADIAL_VELOCITY                   = "Radial velocity relative to barycenter"
\COLUMN_RADIAL_VELOCITY_UNCERTAINTY       = "Uncertainty in RADIAL_VELOCITY"
|            BJD | Radial_Velocity | Radial_Velocity_Uncertainty |
|         double |          double |                      double |
|           days |             m/s |                         m/s |
  2451385.920088           -514.00                          5.00
  2451394.779585           -515.00                          4.00
  2451394.791646           -526.00                          5.00
  2451435.696508           -557.00                          5.00
  2451439.693363           -562.00                          5.00
  2451444.698204           -556.00                          8.00
  2451450.659688           -570.00                          6.00
  2451458.631066           -557.00                          6.00
  2451460.663350           -574.00                          6.00
  2451465.650934           -555.00                          7.00
  2451480.616886           -578.00                         10.00
  2451487.566001           -560.00                          6.00
  2451494.564421           -586.00                          6.00
  2451505.596748           -575.00                          5.00
  2451535.553894           -541.00                          8.00
  2451540.560122           -536.00                         20.00
  2451692.905143           -417.00                          7.00
  2451700.921120           -398.00                          6.00
  2451748.830942           -391.00                          8.00
  2451748.856787           -378.00                         10.00
  2451749.810583           -408.00                          5.00
  2451750.850131           -394.00                          6.00
  2451753.812492           -388.00                          6.00
  2451758.740629           -412.00                          7.00
  2451774.729154           -398.00                          6.00
  2451777.764499           -371.00                         10.00
  2451777.805378           -358.00                         19.00
  2451780.640090           -387.00                         11.00
  2451784.685747           -378.00                          7.00
  2451789.720486           -387.00                          5.00
  2451791.614074           -419.00                          5.00
  2451792.669977           -412.00                          6.00
  2451793.662779           -401.00                          7.00
  2451795.580245           -380.00                          8.00
  2451804.691562           -384.00                          7.00
  2451810.726003           -392.00                          4.00
  2451812.696612           -399.00                          4.00
  2451814.668966           -396.00                          4.00
  2451835.646499           -394.00                          9.00
  2451836.622156           -382.00                          9.00
  2451838.647942           -369.00                          6.00
  2451844.627438           -394.00                          7.00
  2451859.582153           -410.90                          6.00
  2451868.536217           -406.10                          5.00
  2451992.894823           -401.90                         15.00
  2451994.894473           -426.30                          8.00
  2451995.907969           -436.10                          8.00
  2451998.901377           -443.30                          9.00
  2452004.902720           -414.70                          8.00
  2452051.914846           -407.90                          8.00
  2452052.931348           -405.40                          8.00
  2452053.848721           -407.70                          6.00
  2452055.919075           -430.40                         11.00
  2452072.883561           -425.60                          4.00
  2452073.875710           -415.30                          4.00
  2452074.890232           -410.30                          4.00
  2452075.852366           -419.70                          5.00
  2452079.807474           -420.00                          8.00
  2452081.881846           -424.20                          4.00
  2452088.953988           -422.50                          5.00
  2452093.887498           -423.30                          4.00
  2452128.728458           -433.60                          5.00
  2452129.744712           -417.70                          5.00
  2452130.790641           -437.50                          4.00
  2452132.860110           -428.50                          6.00
  2452134.802224           -435.90                          7.00
  2452137.786271           -435.90                          5.00
  2452140.769426           -435.70                          4.00
  2452142.763672           -443.50                          3.00
  2452145.730801           -453.20                          4.00
  2452150.745198           -438.80                          4.00
  2452161.689162           -444.50                          4.00
