\STAR_ID                                  = "HD 50554"
\DATA_CATEGORY                            = "Planet Radial Velocity Curve"
\NUMBER_OF_POINTS                         = "41"
\TIME_REFERENCE_FRAME                     = "BJD"
\MINIMUM_DATE                             = "2450769.6416"
\DATE_UNITS                               = "days"
\MAXIMUM_DATE                             = "2452721.2975"
\MINIMUM_VALUE                            = "-3880.00"
\VALUE_UNITS                              = "m/s"
\MAXIMUM_VALUE                            = "-3656.00"
\REFERENCE                                = "Perrier et al. 2003 (A&A, 410, 1039)"
\BIBCODE                                  = "2003A&A...410.1039P"
\TELESCOPE                                = "1.93m"
\INSTRUMENT                               = "ELODIE"
\WAVELENGTH_CALIBRATION_TECHNIQUE         = "Thorium Argon"
\OBSERVATORY_SITE                         = "Observatoire de Haute Provence (OHP), France"
\COLUMN_RADIAL_VELOCITY                   = "Radial velocity relative to barycenter"
\COLUMN_RADIAL_VELOCITY_UNCERTAINTY       = "Uncertainty in RADIAL_VELOCITY"
|          BJD | Radial_Velocity | Radial_Velocity_Uncertainty |
|       double |          double |                      double |
|         days |             m/s |                         m/s |
  2450769.6416          -3777.00                         11.00
  2450886.3913          -3862.00                          9.00
  2450908.3112          -3863.00                         11.00
  2450912.3670          -3865.00                         10.00
  2451123.6633          -3855.00                          8.00
  2451173.5144          -3869.00                          9.00
  2451236.4001          -3876.00                         10.00
  2451266.3013          -3862.00                         12.00
  2451269.3229          -3862.00                          9.00
  2451505.6068          -3832.00                         11.00
  2451510.6377          -3835.00                          9.00
  2451541.5099          -3834.00                         10.00
  2451562.4511          -3827.00                         13.00
  2451585.3937          -3811.00                         12.00
  2451621.2912          -3826.00                          9.00
  2451625.3286          -3826.00                          9.00
  2451653.3054          -3820.00                          9.00
  2451656.3116          -3808.00                          8.00
  2451834.6671          -3656.00                          9.00
  2451852.6833          -3662.00                          9.00
  2451853.6582          -3667.00                          9.00
  2451882.5789          -3698.00                          9.00
  2451900.5664          -3707.00                         11.00
  2451906.5866          -3701.00                         11.00
  2451951.5312          -3768.00                         11.00
  2451953.4950          -3746.00                         15.00
  2451978.2807          -3768.00                          9.00
  2451980.3912          -3777.00                          9.00
  2452008.3358          -3781.00                         14.00
  2452197.6802          -3830.00                          9.00
  2452199.6665          -3835.00                          8.00
  2452214.6511          -3858.00                         11.00
  2452217.5894          -3841.00                          9.00
  2452248.6201          -3860.00                         12.00
  2452251.6488          -3864.00                          9.00
  2452355.3415          -3880.00                         10.00
  2452359.3134          -3872.00                          9.00
  2452614.6097          -3876.00                         10.00
  2452681.4473          -3870.00                          9.00
  2452718.3235          -3874.00                          8.00
  2452721.2975          -3857.00                         10.00
