\STAR_ID                                  = "HD 19994"
\DATA_CATEGORY                            = "Planet Radial Velocity Curve"
\NUMBER_OF_POINTS                         = "48"
\TIME_REFERENCE_FRAME                     = "BJD"
\MINIMUM_DATE                             = "2451129.7068"
\DATE_UNITS                               = "days"
\MAXIMUM_DATE                             = "2452648.5958"
\MINIMUM_VALUE                            = "19280.00"
\VALUE_UNITS                              = "m/s"
\MAXIMUM_VALUE                            = "19382.00"
\REFERENCE                                = "Mayor et al. 2004 (A&A, 415, 391)"
\BIBCODE                                  = "2004A&A...415..391M"
\TELESCOPE                                = "1.2m Euler Swiss telescope"
\INSTRUMENT                               = "CORALIE"
\WAVELENGTH_CALIBRATION_TECHNIQUE         = "Thorium Argon"
\OBSERVATORY_SITE                         = "ESO La Silla, Chile"
\COLUMN_RADIAL_VELOCITY                   = "Radial velocity relative to barycenter"
\COLUMN_RADIAL_VELOCITY_UNCERTAINTY       = "Uncertainty in RADIAL_VELOCITY"
|          BJD | Radial_Velocity | Radial_Velocity_Uncertainty |
|       double |          double |                      double |
|         days |             m/s |                         m/s |
  2451129.7068          19326.00                          8.00
  2451134.6932          19296.00                         10.00
  2451142.6909          19296.00                         10.00
  2451184.5698          19316.00                          9.00
  2451440.8685          19382.00                          5.00
  2451481.6876          19367.00                          5.00
  2451496.7242          19354.00                          4.00
  2451535.6021          19329.00                          4.00
  2451544.5607          19338.00                          6.00
  2451568.5693          19324.00                          5.00
  2451578.5675          19333.00                          6.00
  2451605.5091          19332.00                          7.00
  2451620.5151          19312.00                          8.00
  2451621.5038          19312.00                          7.00
  2451623.5122          19300.00                         10.00
  2451624.5107          19297.00                          9.00
  2451625.5135          19308.00                         11.00
  2451626.4912          19322.00                         12.00
  2451627.4910          19292.00                          7.00
  2451628.5015          19294.00                          8.00
  2451629.5033          19290.00                          9.00
  2451630.4899          19290.00                         10.00
  2451631.4924          19300.00                          8.00
  2451632.4857          19309.00                          7.00
  2451633.4873          19288.00                          8.00
  2451635.4781          19280.00                         10.00
  2451749.9388          19326.00                          5.00
  2451750.9244          19320.00                          5.00
  2451753.9313          19318.00                          4.00
  2451758.9111          19317.00                          5.00
  2451759.9249          19314.00                          6.00
  2451774.8887          19329.00                          5.00
  2451776.8644          19318.00                          8.00
  2451778.8734          19316.00                         11.00
  2451783.8743          19327.00                          5.00
  2451784.8196          19324.00                          5.00
  2451785.8615          19319.00                          6.00
  2451786.8729          19318.00                          5.00
  2451861.7078          19343.00                          5.00
  2451868.6909          19346.00                          3.00
  2451896.6195          19356.00                          6.00
  2451901.6512          19347.00                          6.00
  2451910.5850          19357.00                          6.00
  2452142.9276          19326.00                          5.00
  2452184.8231          19308.00                          5.00
  2452550.8119          19374.00                          4.00
  2452643.5969          19315.00                          4.00
  2452648.5958          19309.00                          3.00
