\STAR_ID                                  = "HD 4308"
\DATA_CATEGORY                            = "Planet Radial Velocity Curve"
\NUMBER_OF_POINTS                         = "41"
\TIME_REFERENCE_FRAME                     = "JD"
\MINIMUM_DATE                             = "2452899.77052"
\DATE_UNITS                               = "days"
\MAXIMUM_DATE                             = "2453579.83685"
\MINIMUM_VALUE                            = "95238.40"
\VALUE_UNITS                              = "m/s"
\MAXIMUM_VALUE                            = "95251.40"
\REFERENCE                                = "Udry et al. 2006 (A&A, 447, 361)"
\BIBCODE                                  = "2006A&A...447..361U"
\TELESCOPE                                = "3.6m"
\INSTRUMENT                               = "HARPS"
\WAVELENGTH_CALIBRATION_TECHNIQUE         = "Thorium Argon"
\OBSERVATORY_SITE                         = "ESO La Silla, Chile"
\COLUMN_JD                                = "Julian date of observation"
\COLUMN_RADIAL_VELOCITY                   = "Radial velocity relative to barycenter"
\COLUMN_RADIAL_VELOCITY_UNCERTAINTY       = "Uncertainty in RADIAL_VELOCITY"
|            JD | Radial_Velocity | Radial_Velocity_Uncertainty |
|        double |          double |                      double |
|          days |             m/s |                         m/s |
  2452899.77052          95245.40                          1.36
  2452939.67749          95251.40                          1.44
  2452946.72659          95241.00                          1.57
  2453266.77155          95249.55                          1.02
  2453268.72143          95249.40                          1.00
  2453273.74140          95241.54                          1.00
  2453274.74846          95242.00                          0.95
  2453287.69258          95245.42                          1.01
  2453288.69001          95244.26                          0.88
  2453289.70387          95245.30                          0.89
  2453291.68596          95239.83                          1.09
  2453292.67405          95241.29                          0.92
  2453294.64135          95242.44                          1.15
  2453295.76250          95248.50                          1.29
  2453298.72754          95248.22                          0.90
  2453308.68463          95242.48                          0.88
  2453309.54646          95243.17                          0.95
  2453310.65747          95244.71                          0.88
  2453312.54143          95248.96                          0.94
  2453314.70856          95249.10                          0.94
  2453315.62201          95249.53                          0.94
  2453321.64168          95238.40                          1.16
  2453366.54310          95243.83                          0.87
  2453367.58691          95242.81                          0.88
  2453371.56598          95243.21                          0.88
  2453372.55973          95246.43                          0.88
  2453373.55895          95247.20                          0.94
  2453374.55931          95247.07                          0.90
  2453376.54410          95249.64                          0.88
  2453377.53686          95247.10                          0.89
  2453401.53108          95244.70                          1.26
  2453403.54910          95244.22                          1.00
  2453404.52408          95246.75                          0.99
  2453406.52597          95248.24                          1.00
  2453408.52500          95250.76                          1.05
  2453409.52594          95249.60                          1.01
  2453410.52003          95249.61                          1.00
  2453412.50936          95245.25                          1.01
  2453573.91705          95243.30                          1.12
  2453576.87555          95249.70                          1.11
  2453579.83685          95249.90                          1.15
