\STAR_ID='HD 114710'
\DATA_CATEGORY='Planet Radial Velocity Curve'
\NUMBER_OF_POINTS='35'
\TIME_REFERENCE_FRAME='HJD'
\MINIMUM_DATE='2446959.7737'
\DATE_UNITS='days'
\MAXIMUM_DATE='2449469.80315'
\MINIMUM_VALUE='-51.6327591'
\VALUE_UNITS='m/s'
\MAXIMUM_VALUE='72.5811462'
\REFERENCE='Howard & Fulton, 2016'
\BIBCODE='2016arXiv160603134H'
\TELESCOPE='3.0m Shane'
\INSTRUMENT='p: Hamilton Spectrograph dewar 16 (prior to November 1994)'
\WAVELENGTH_CALIBRATION_TECHNIQUE='Iodine'
\OBSERVATORY_SITE='Lick Observatory, California'
\COLUMN_RADIAL_VELOCITY='Relative radial velocity'
\COLUMN_RADIAL_VELOCITY_UNCERTAINTY='Uncertainty in RADIAL_VELOCITY'
|          HJD|Radial_Velocity|Radial_Velocity_Uncertainty|
|       double|         double|                     double|
|         days|          m / s|                      m / s|
|         null|           null|                       null|
  2446959.7737      26.4599991                  19.3099995 
 2447182.01953     -51.6327591                  13.8073397 
 2447194.98214     -20.1762161                   7.8416262 
 2447223.85891     -39.6493835                   5.9579811 
 2447224.82181     -48.3909836                   6.2848854 
  2447330.7329      10.7313614                   8.6811018 
 2447373.70813       5.8372846                    7.632513 
  2447578.8809           -1.61                  12.5700006 
  2447708.7416           -2.29                  13.4699993 
  2447919.0099     -15.5600004                  13.1599989 
 2447964.97699      -0.0735726                   9.8658886 
 2448017.79742      19.8752022                   8.6397943 
 2448018.79733       4.6622586                   4.6646342 
  2448019.7414        9.041749                   8.7184553 
 2448113.66431      42.1512833                   9.9118795 
 2448374.82168     -43.6429977                   8.3098726 
  2448375.8215     -12.6977463                   7.1457162 
 2448376.75374      12.3048782                   7.4097939 
  2448437.7175      27.8498859                  11.3243132 
 2448438.75376      14.2773085                  10.7593145 
 2448649.05749      -23.742979                   9.0748711 
 2448670.91142      11.1506157                   8.8514309 
 2448723.73974      72.5811462                   8.0782337 
  2448744.8683      11.7203741                  11.0203371 
  2448779.7061       -0.888676                  10.5686111 
 2448847.65782     -10.4729586                   7.8513498 
  2448993.0455     -38.2299995                  11.1499996 
 2449067.84973      -4.2183986                   9.1344309 
 2449114.76724       6.5246186                  10.0793886 
  2449123.7458       1.2078545                   9.9360209 
 2449172.69896      -10.880106                   9.8586855 
 2449174.69419     -10.1468658                    8.849185 
  2449351.0245     -15.6206341                   9.5380659 
  2449411.9009       7.2600002                  13.9899988 
 2449469.80315      12.3223705                   7.5604224 
