\STAR_ID                                  = "HD 52265"
\DATA_CATEGORY                            = "Planet Radial Velocity Curve"
\NUMBER_OF_POINTS                         = "91"
\TIME_REFERENCE_FRAME                     = "BJD"
\MINIMUM_DATE                             = "2451138.810132"
\DATE_UNITS                               = "days"
\MAXIMUM_DATE                             = "2451646.613938"
\MINIMUM_VALUE                            = "53707.00"
\VALUE_UNITS                              = "m/s"
\MAXIMUM_VALUE                            = "53833.00"
\REFERENCE                                = "Naef et al. 2001 (A&A, 375, 205)"
\BIBCODE                                  = "2001A&A...375..205N"
\TELESCOPE                                = "1.2m Euler Swiss telescope"
\INSTRUMENT                               = "CORALIE"
\WAVELENGTH_CALIBRATION_TECHNIQUE         = "Thorium Argon"
\OBSERVATORY_SITE                         = "ESO La Silla, Chile"
\COLUMN_RADIAL_VELOCITY                   = "Radial velocity relative to barycenter"
\COLUMN_RADIAL_VELOCITY_UNCERTAINTY       = "Uncertainty in RADIAL_VELOCITY"
|            BJD | Radial_Velocity | Radial_Velocity_Uncertainty |
|         double |          double |                      double |
|           days |             m/s |                         m/s |
  2451138.810132          53784.00                         10.00
  2451183.731889          53724.00                          9.00
  2451187.712055          53727.00                          9.00
  2451190.741799          53741.00                          9.00
  2451193.717130          53753.00                          9.00
  2451196.703975          53758.00                         11.00
  2451199.732102          53779.00                          9.00
  2451200.656990          53762.00                         11.00
  2451214.573230          53803.00                          8.00
  2451230.559475          53798.00                          8.00
  2451233.586250          53798.00                          8.00
  2451234.550909          53795.00                          8.00
  2451235.530554          53795.00                          8.00
  2451236.538287          53802.00                          9.00
  2451237.528323          53797.00                          8.00
  2451238.529469          53780.00                          8.00
  2451239.526308          53791.00                          8.00
  2451240.525612          53799.00                          8.00
  2451241.567446          53795.00                          8.00
  2451242.522677          53799.00                          8.00
  2451243.521816          53792.00                          8.00
  2451245.532360          53779.00                          8.00
  2451246.537931          53781.00                          8.00
  2451248.521412          53776.00                          8.00
  2451288.521933          53719.00                          9.00
  2451291.467944          53717.00                          8.00
  2451296.516504          53718.00                          8.00
  2451298.464388          53714.00                          8.00
  2451300.458845          53721.00                          8.00
  2451302.458374          53716.00                          9.00
  2451303.462277          53718.00                         11.00
  2451304.466921          53726.00                          9.00
  2451307.459204          53752.00                         14.00
  2451416.909097          53720.00                          8.00
  2451417.875073          53720.00                          9.00
  2451418.914480          53707.00                         11.00
  2451423.907420          53718.00                          9.00
  2451438.899470          53791.00                          8.00
  2451440.899795          53803.00                          9.00
  2451441.905201          53802.00                          8.00
  2451442.901985          53830.00                          9.00
  2451443.904974          53804.00                          9.00
  2451444.901631          53792.00                          9.00
  2451446.889820          53797.00                          9.00
  2451450.891493          53823.00                          9.00
  2451455.893640          53832.00                          9.00
  2451458.846306          53817.00                          9.00
  2451460.831527          53805.00                         11.00
  2451464.849993          53833.00                          9.00
  2451480.831659          53821.00                         15.00
  2451484.848922          53810.00                          9.00
  2451486.774378          53808.00                         16.00
  2451490.749796          53795.00                          9.00
  2451493.865519          53807.00                          9.00
  2451496.828863          53791.00                         11.00
  2451499.847781          53802.00                          9.00
  2451501.848786          53804.00                         10.00
  2451549.686424          53757.00                          8.00
  2451550.736982          53761.00                          9.00
  2451567.789336          53794.00                          9.00
  2451568.669094          53793.00                          9.00
  2451575.669303          53810.00                          9.00
  2451577.566638          53794.00                         10.00
  2451605.553702          53793.00                          9.00
  2451607.561658          53797.00                          8.00
  2451608.531957          53791.00                          9.00
  2451611.527807          53790.00                         10.00
  2451616.543746          53778.00                          8.00
  2451619.563362          53773.00                          9.00
  2451621.550051          53782.00                         10.00
  2451623.660338          53779.00                         11.00
  2451624.539361          53784.00                          9.00
  2451625.578926          53769.00                          9.00
  2451626.519888          53764.00                         10.00
  2451627.537313          53762.00                          9.00
  2451628.530145          53766.00                          9.00
  2451629.549595          53768.00                         10.00
  2451630.518539          53765.00                         10.00
  2451631.538647          53746.00                          9.00
  2451632.514385          53756.00                          9.00
  2451633.530292          53759.00                          9.00
  2451634.550411          53775.00                          9.00
  2451635.518359          53756.00                          9.00
  2451638.537620          53746.00                          9.00
  2451639.523598          53745.00                         12.00
  2451640.544018          53751.00                          9.00
  2451641.506491          53747.00                          9.00
  2451642.506554          53734.00                          9.00
  2451643.527437          53720.00                          9.00
  2451645.530954          53732.00                          9.00
  2451646.613938          53737.00                         10.00
