\STAR_ID                                  = "XO-3"
\DATA_CATEGORY                            = "Planet Radial Velocity Curve"
\NUMBER_OF_POINTS                         = "55"
\TIME_REFERENCE_FRAME                     = "BJD"
\MINIMUM_DATE                             = "2454494.4461"
\DATE_UNITS                               = "days"
\MAXIMUM_DATE                             = "2454554.3114"
\MINIMUM_VALUE                            = "-13135.00"
\VALUE_UNITS                              = "m/s"
\MAXIMUM_VALUE                            = "-10156.00"
\REFERENCE                                = "Hebrard et al. 2008 (A&A, 488, 763)"
\BIBCODE                                  = "2008A&A...488..763H"
\TELESCOPE                                = "1.93m"
\INSTRUMENT                               = "SOPHIE"
\WAVELENGTH_CALIBRATION_TECHNIQUE         = "Thorium Argon"
\OBSERVATORY_SITE                         = "Observatoire de Haute Provence (OHP), France"
\COLUMN_RADIAL_VELOCITY                   = "Radial velocity relative to barycenter"
\COLUMN_RADIAL_VELOCITY_UNCERTAINTY       = "Uncertainty in RADIAL_VELOCITY"
|          BJD | Radial_Velocity | Radial_Velocity_Uncertainty |
|       double |          double |                      double |
|         days |             m/s |                         m/s |
  2454494.4461         -11298.00                         20.00
  2454494.4526         -11300.00                         26.00
  2454494.4578         -11345.00                         27.00
  2454494.4625         -11379.00                         27.00
  2454494.4675         -11390.00                         28.00
  2454494.4721         -11354.00                         28.00
  2454494.4767         -11460.00                         29.00
  2454494.4813         -11448.00                         28.00
  2454494.4861         -11419.00                         27.00
  2454494.4913         -11411.00                         27.00
  2454494.4960         -11457.00                         28.00
  2454494.5007         -11463.00                         28.00
  2454494.5054         -11549.00                         28.00
  2454494.5101         -11482.00                         28.00
  2454494.5152         -11589.00                         28.00
  2454494.5202         -11652.00                         28.00
  2454494.5254         -11611.00                         27.00
  2454494.5303         -11679.00                         27.00
  2454494.5352         -11691.00                         36.00
  2454494.5413         -11667.00                         35.00
  2454494.5474         -11782.00                         34.00
  2454494.5535         -11700.00                         34.00
  2454494.5599         -11649.00                         35.00
  2454494.5665         -11785.00                         34.00
  2454494.5738         -11811.00                         36.00
  2454494.5806         -11783.00                         33.00
  2454494.5880         -11867.00                         33.00
  2454494.5957         -11767.00                         33.00
  2454494.6036         -11785.00                         35.00
  2454494.6123         -11740.00                         34.00
  2454494.6210         -11783.00                         35.00
  2454494.6305         -11880.00                         33.00
  2454494.6407         -11843.00                         34.00
  2454494.6532         -11920.00                         36.00
  2454494.6668         -11964.00                         37.00
  2454494.6822         -11913.00                         49.00
  2454496.2649         -12723.00                         50.00
  2454497.2609         -10156.00                         29.00
  2454499.2765         -13006.00                         30.00
  2454501.2926         -12433.00                         31.00
  2454501.4628         -12756.00                         33.00
  2454502.2730         -13068.00                         24.00
  2454503.2614         -10936.00                         30.00
  2454503.4700         -10182.00                         40.00
  2454504.4321         -12398.00                         28.00
  2454505.2889         -13132.00                         23.00
  2454506.2904         -11593.00                         25.00
  2454511.4534         -13041.00                         38.00
  2454512.4618         -12246.00                         36.00
  2454513.3091         -10360.00                         52.00
  2454516.3517         -10176.00                         46.00
  2454516.4540         -10267.00                         71.00
  2454551.3044         -10316.00                         32.00
  2454553.3002         -13135.00                         33.00
  2454554.3114         -11004.00                         19.00
