\STAR_ID='HD 69830'
\DATA_CATEGORY='Planet Radial Velocity Curve'
\NUMBER_OF_POINTS='31'
\TIME_REFERENCE_FRAME='HJD'
\MINIMUM_DATE='2451861.01367'
\DATE_UNITS='days'
\MAXIMUM_DATE='2455312.6633'
\MINIMUM_VALUE='-14.220000267'
\VALUE_UNITS='m/s'
\MAXIMUM_VALUE='13.7299995422'
\REFERENCE='Howard & Fulton, 2016'
\BIBCODE='2016arXiv160603134H'
\TELESCOPE='3.0m Shane'
\INSTRUMENT='l: Hamilton Spectrograph post-dewar 16 (after November 1994)'
\WAVELENGTH_CALIBRATION_TECHNIQUE='Iodine'
\OBSERVATORY_SITE='Lick Observatory, California'
\COLUMN_RADIAL_VELOCITY='Relative radial velocity'
\COLUMN_RADIAL_VELOCITY_UNCERTAINTY='Uncertainty in RADIAL_VELOCITY'
|          HJD|Radial_Velocity|Radial_Velocity_Uncertainty|
|       double|         double|                     double|
|         days|          m / s|                      m / s|
|         null|           null|                       null|
 2451861.01367  -8.31000041962                   3.8499999 
 2451915.94238  -11.2100000381                   3.2499998 
 2451927.92994  -4.26999998093                        3.48 
  2451945.8584  -1.92999994755                   3.3299999 
 2451946.83691  -1.22000002861                   3.4100001 
 2452267.92285  -3.81999993324                        2.51 
 2452333.76562  -5.90000009537                        3.05 
 2452335.71191  -9.27999973297                   2.9000001 
 2452706.74433 -0.330000013113                        1.85 
 2453018.85938   7.11999988556                        2.95 
 2453044.80269   11.0500001907                   2.1400001 
 2453069.71484   1.99000000954                   3.8199999 
 2453282.04981  -5.55000019073                   2.8099999 
  2453312.0306  -2.86999988556                        2.95 
  2453317.0365   7.67000007629                   2.8900001 
 2453334.99489  -2.84999990463                        1.65 
 2453340.05292   12.8100004196                   2.8800001 
 2453340.97647   13.7299995422                   2.6500001 
 2453405.85495  -10.3199996948                   2.9400001 
 2453744.89168 -0.439999997616                   2.8800001 
 2453756.81878   4.51999998093                        3.23 
 2454050.06758 -0.930000007153                   2.5599999 
 2454072.94412  -8.39999961853                   2.6300004 
 2454073.92537   7.42000007629                   2.9100001 
 2454099.96582             0.0                   2.9400001 
 2454427.02683  0.709999978542                   2.9000001 
 2454547.78034   -14.220000267                   2.9200001 
 2454783.97596   -12.279999733                        2.79 
 2454784.97067  -1.15999996662                        3.27 
 2454846.87786   5.07000017166                        2.22 
  2455312.6633   5.38000011444                         2.8 
