\STAR_ID                                  = "HD 74156"
\DATA_CATEGORY                            = "Planet Radial Velocity Curve"
\NUMBER_OF_POINTS                         = "51"
\TIME_REFERENCE_FRAME                     = "BJD"
\MINIMUM_DATE                             = "2450823.5570"
\DATE_UNITS                               = "days"
\MAXIMUM_DATE                             = "2452777.3734"
\MINIMUM_VALUE                            = "3625.00"
\VALUE_UNITS                              = "m/s"
\MAXIMUM_VALUE                            = "3961.00"
\REFERENCE                                = "Naef et al. 2004 (A&A, 414, 351)"
\BIBCODE                                  = "2004A&A...414..351N"
\TELESCOPE                                = "1.93m"
\INSTRUMENT                               = "ELODIE"
\WAVELENGTH_CALIBRATION_TECHNIQUE         = "Thorium Argon"
\OBSERVATORY_SITE                         = "Observatoire de Haute Provence (OHP), France"
\COLUMN_RADIAL_VELOCITY                   = "Radial velocity relative to barycenter"
\COLUMN_RADIAL_VELOCITY_UNCERTAINTY       = "Uncertainty in RADIAL_VELOCITY"
|          BJD | Radial_Velocity | Radial_Velocity_Uncertainty |
|       double |          double |                      double |
|         days |             m/s |                         m/s |
  2450823.5570           3745.00                          9.00
  2450885.4082           3769.00                         11.00
  2450885.4213           3774.00                         11.00
  2450887.4567           3750.00                          9.00
  2450888.4285           3748.00                         15.00
  2450888.4410           3752.00                         14.00
  2451174.5899           3935.00                         10.00
  2451236.4482           3944.00                         12.00
  2451266.3400           3921.00                         14.00
  2451506.6895           3929.00                         10.00
  2451508.6021           3911.00                          9.00
  2451542.5956           3961.00                         10.00
  2451585.4755           3958.00                         18.00
  2451588.4007           3949.00                         14.00
  2451590.4254           3945.00                         10.00
  2451622.3732           3809.00                         11.00
  2451857.6424           3917.00                         17.00
  2451882.6727           3810.00                         14.00
  2451882.6824           3813.00                         14.00
  2451901.5975           3900.00                         16.00
  2451909.6139           3921.00                         19.00
  2451951.5054           3892.00                         13.00
  2451951.5194           3898.00                         13.00
  2451952.4769           3898.00                          9.00
  2451954.4927           3889.00                         14.00
  2451978.3992           3785.00                         12.00
  2451980.4418           3705.00                         15.00
  2452007.3355           3861.00                         15.00
  2452253.6976           3827.00                         13.00
  2452279.5266           3843.00                         12.00
  2452280.5209           3822.00                          9.00
  2452281.5184           3831.00                         13.00
  2452308.5850           3857.00                         15.00
  2452310.5427           3859.00                         10.00
  2452358.3959           3824.00                         14.00
  2452360.3783           3812.00                         12.00
  2452388.3668           3771.00                         11.00
  2452597.7047           3699.00                         12.00
  2452612.7064           3783.00                         12.00
  2452638.5555           3798.00                         13.00
  2452649.6065           3673.00                         11.00
  2452649.6196           3679.00                         12.00
  2452677.5246           3799.00                         16.00
  2452677.5379           3803.00                         17.00
  2452681.5448           3790.00                         11.00
  2452719.3898           3766.00                         10.00
  2452747.3436           3729.00                         12.00
  2452748.3181           3724.00                         12.00
  2452751.3477           3672.00                         12.00
  2452753.3585           3625.00                         16.00
  2452777.3734           3762.00                         17.00
