\STAR_ID                                  = "HD 80606"
\DATA_CATEGORY                            = "Planet Radial Velocity Curve"
\NUMBER_OF_POINTS                         = "48"
\TIME_REFERENCE_FRAME                     = "JD"
\MINIMUM_DATE                             = "2454871.47853"
\DATE_UNITS                               = "days"
\MAXIMUM_DATE                             = "2454880.53548"
\MINIMUM_VALUE                            = "4070.80"
\VALUE_UNITS                              = "m/s"
\MAXIMUM_VALUE                            = "4456.20"
\REFERENCE                                = "Moutou et al. 2009 (A&A, 498, L5)"
\BIBCODE                                  = "2009A&A...498L...5M"
\TELESCOPE                                = "1.93m"
\INSTRUMENT                               = "SOPHIE"
\WAVELENGTH_CALIBRATION_TECHNIQUE         = "Thorium Argon"
\OBSERVATORY_SITE                         = "Observatoire de Haute Provence (OHP), France"
\COLUMN_JD                                = "Julian date of observation"
\COLUMN_RADIAL_VELOCITY                   = "Radial velocity relative to barycenter"
\COLUMN_RADIAL_VELOCITY_UNCERTAINTY       = "Uncertainty in RADIAL_VELOCITY"
|            JD | Radial_Velocity | Radial_Velocity_Uncertainty |
|        double |          double |                      double |
|          days |             m/s |                         m/s |
  2454871.47853           4456.20                          4.60
  2454874.35252           4197.90                          4.40
  2454874.56659           4200.90                          4.40
  2454875.43806           4165.30                          4.50
  2454876.29565           4124.90                          4.40
  2454876.30391           4127.00                          4.40
  2454876.31208           4124.90                          4.40
  2454876.32034           4125.20                          4.40
  2454876.32891           4121.60                          4.40
  2454876.34291           4127.70                          4.40
  2454876.35329           4132.90                          4.40
  2454876.36302           4128.50                          4.40
  2454876.37264           4127.70                          4.40
  2454876.38268           4131.00                          4.40
  2454876.39338           4126.70                          4.40
  2454876.40538           4126.90                          4.40
  2454876.41789           4128.60                          4.40
  2454876.42993           4129.10                          4.40
  2454876.44290           4117.20                          4.40
  2454876.45260           4125.90                          4.40
  2454876.46171           4131.00                          4.40
  2454876.47040           4124.60                          4.40
  2454876.47885           4124.60                          4.40
  2454876.48674           4119.30                          4.40
  2454876.49422           4123.10                          4.40
  2454876.50183           4122.60                          4.40
  2454876.50960           4126.40                          4.40
  2454876.51755           4121.30                          4.40
  2454876.52614           4128.80                          4.40
  2454876.53952           4133.10                          4.40
  2454876.55160           4128.60                          4.40
  2454876.56321           4138.80                          4.40
  2454876.57483           4133.30                          4.40
  2454876.58984           4133.40                          4.40
  2454876.60029           4129.40                          4.40
  2454876.61211           4137.50                          4.50
  2454876.62624           4133.60                          4.50
  2454876.64363           4137.10                          4.50
  2454876.66005           4131.30                          4.50
  2454876.67697           4130.10                          4.50
  2454876.69241           4127.20                          4.50
  2454876.70954           4129.10                          4.50
  2454876.72874           4129.00                          5.00
  2454877.44204           4113.90                          4.40
  2454877.58164           4109.60                          4.40
  2454878.46877           4086.00                          4.40
  2454879.42175           4077.90                          4.40
  2454880.53548           4070.80                          4.40
