\STAR_ID='HD 67228'
\DATA_CATEGORY='Planet Radial Velocity Curve'
\NUMBER_OF_POINTS='39'
\TIME_REFERENCE_FRAME='HJD'
\MINIMUM_DATE='2451173.97168'
\DATE_UNITS='days'
\MAXIMUM_DATE='2455847.00742'
\MINIMUM_VALUE='-26.4799995422'
\VALUE_UNITS='m/s'
\MAXIMUM_VALUE='31.0900001526'
\REFERENCE='Howard & Fulton, 2016'
\BIBCODE='2016arXiv160603134H'
\TELESCOPE='3.0m Shane'
\INSTRUMENT='l: Hamilton Spectrograph post-dewar 16 (after November 1994)'
\WAVELENGTH_CALIBRATION_TECHNIQUE='Iodine'
\OBSERVATORY_SITE='Lick Observatory, California'
\COLUMN_RADIAL_VELOCITY='Relative radial velocity'
\COLUMN_RADIAL_VELOCITY_UNCERTAINTY='Uncertainty in RADIAL_VELOCITY'
|          HJD|Radial_Velocity|Radial_Velocity_Uncertainty|
|       double|         double|                     double|
|         days|          m / s|                      m / s|
|         null|           null|                       null|
 2451173.97168   9.22999954224                   4.9200001 
 2451212.85352   8.39000034332                   4.3800001 
 2451213.82227   2.06999993324                   4.3000002 
 2451532.98438   31.0900001526                   3.8400002 
 2451534.94629  -3.44000005722                         3.8 
  2451539.9375   11.1800003052                        3.45 
 2451581.81055   30.2800006866                   4.3699999 
 2451607.78221   12.4899997711                        2.95 
 2451626.67871  -10.4499998093                   3.5000002 
 2451629.72852  -7.17999982834                   3.8499999 
 2451939.85328            5.75                   3.5600002 
 2451945.85059   8.67000007629                   3.1400003 
 2452990.93066  -11.5600004196                   2.9799998 
 2452991.98535  -6.23999977112                   3.2399998 
  2453010.9043  -5.71000003815                   3.6099999 
 2453068.73242   1.87999999523                         3.2 
 2453337.88769  -9.53999996185                        3.53 
 2453338.92871  -5.59999990463                   3.6900001 
 2453339.96512  -3.00999999046                        2.28 
 2453360.90133   9.18000030518                   3.4300001 
 2453362.87009   1.58000004292                   3.3999999 
 2453363.87527  -4.73000001907                   3.4399998 
 2453384.77633   3.84999990463                   3.3400002 
 2453385.82406   7.88000011444                   2.9400001 
 2453402.82223   3.20000004768                        3.01 
 2453403.87389   -3.8900001049                         3.0 
  2453405.8319  -7.76000022888                   3.0199997 
 2453437.71211  -13.8500003815                   3.1600001 
 2453438.70609  -9.39999961853                   3.1500001 
 2453439.71582  -26.4799995422                   3.1000001 
 2453440.71336  -8.72000026703                   3.7199998 
 2453441.71993  -2.09999990463                        2.96 
 2453744.79383  0.070000000298                        3.28 
 2453752.84321  -21.3299999237                   3.5899997 
 2453755.85428  -11.9499998093                   3.4399998 
 2453756.81229  -20.6700000763                   3.6700001 
 2453843.78811             0.0                   3.1600001 
   2454846.855  -7.88000011444                   3.4399998 
 2455847.00742           -0.75                   3.3900001 
