\STAR_ID                                  = "HD 47186"
\DATA_CATEGORY                            = "Planet Radial Velocity Curve"
\NUMBER_OF_POINTS                         = "66"
\TIME_REFERENCE_FRAME                     = "JD"
\MINIMUM_DATE                             = "2452988.703004"
\DATE_UNITS                               = "days"
\MAXIMUM_DATE                             = "2454571.499089"
\MINIMUM_VALUE                            = "4289.63"
\VALUE_UNITS                              = "m/s"
\MAXIMUM_VALUE                            = "4320.08"
\REFERENCE                                = "Bouchy et al. 2009 (A&A, 496, 527)"
\BIBCODE                                  = "2009A&A...496..527B"
\TELESCOPE                                = "3.6m"
\INSTRUMENT                               = "HARPS"
\WAVELENGTH_CALIBRATION_TECHNIQUE         = "Thorium Argon"
\OBSERVATORY_SITE                         = "ESO La Silla, Chile"
\COLUMN_JD                                = "Julian date of observation"
\COLUMN_RADIAL_VELOCITY                   = "Radial velocity relative to barycenter"
\COLUMN_RADIAL_VELOCITY_UNCERTAINTY       = "Uncertainty in RADIAL_VELOCITY"
|             JD | Radial_Velocity | Radial_Velocity_Uncertainty |
|         double |          double |                      double |
|           days |             m/s |                         m/s |
  2452988.703004           4304.24                          1.37
  2453051.609499           4312.41                          1.17
  2453066.604745           4309.20                          1.05
  2453765.630976           4307.46                          0.34
  2453809.567258           4299.20                          0.37
  2453833.573660           4292.72                          0.39
  2453863.511653           4308.05                          0.37
  2453865.482050           4289.63                          0.34
  2453866.474025           4292.97                          0.33
  2453867.507134           4306.34                          0.40
  2453868.481403           4303.54                          0.38
  2453869.484549           4290.00                          0.36
  2453870.465405           4294.04                          0.45
  2453871.482197           4305.45                          0.39
  2453882.484971           4290.01                          0.75
  2453883.479623           4302.61                          0.29
  2453884.449562           4306.37                          0.64
  2453887.472451           4299.78                          0.40
  2454078.726917           4294.37                          0.52
  2454080.750257           4304.89                          0.53
  2454082.754126           4293.12                          0.41
  2454114.686247           4293.08                          0.45
  2454117.676484           4304.37                          0.41
  2454135.627318           4292.17                          0.41
  2454142.622952           4298.56                          0.41
  2454166.542422           4307.06                          0.51
  2454168.571115           4294.09                          0.34
  2454170.534220           4308.45                          0.41
  2454172.531533           4293.06                          0.34
  2454174.565186           4307.74                          0.39
  2454194.532595           4309.54                          0.38
  2454196.534946           4292.36                          0.45
  2454197.561837           4299.63                          0.43
  2454198.529230           4310.25                          0.36
  2454199.531205           4303.37                          0.37
  2454200.553386           4292.73                          0.36
  2454202.521978           4310.20                          0.40
  2454225.500305           4293.88                          0.55
  2454228.520504           4299.10                          0.55
  2454229.505742           4294.78                          0.51
  2454231.500884           4311.33                          0.49
  2454232.495742           4300.63                          0.70
  2454254.444383           4296.90                          0.60
  2454259.454986           4308.02                          0.57
  2454316.925202           4308.77                          0.56
  2454342.910176           4298.11                          0.41
  2454344.912674           4305.81                          0.40
  2454345.911824           4311.85                          0.40
  2454346.896167           4302.27                          0.52
  2454347.910727           4294.26                          0.44
  2454385.827460           4310.54                          0.56
  2454386.818124           4313.90                          0.45
  2454387.851302           4300.97                          0.41
  2454389.814468           4311.05                          0.71
  2454390.861871           4315.35                          0.47
  2454392.770877           4298.05                          0.48
  2454393.840630           4307.07                          0.44
  2454394.798906           4315.44                          0.48
  2454484.617526           4317.06                          0.40
  2454486.626113           4298.82                          0.46
  2454525.631270           4318.83                          0.40
  2454530.545494           4308.72                          0.39
  2454564.497545           4301.19                          0.41
  2454567.493006           4306.99                          0.37
  2454570.497704           4320.08                          0.42
  2454571.499089           4309.49                          0.48
