\STAR_ID='HD 161797'
\DATA_CATEGORY='Planet Radial Velocity Curve'
\NUMBER_OF_POINTS='29'
\TIME_REFERENCE_FRAME='HJD'
\MINIMUM_DATE='2447048.6994'
\DATE_UNITS='days'
\MAXIMUM_DATE='2449601.65642'
\MINIMUM_VALUE='568.225708008'
\VALUE_UNITS='m/s'
\MAXIMUM_VALUE='869.450012207'
\REFERENCE='Howard & Fulton, 2016'
\BIBCODE='2016arXiv160603134H'
\TELESCOPE='3.0m Shane'
\INSTRUMENT='p: Hamilton Spectrograph dewar 16 (prior to November 1994)'
\WAVELENGTH_CALIBRATION_TECHNIQUE='Iodine'
\OBSERVATORY_SITE='Lick Observatory, California'
\COLUMN_RADIAL_VELOCITY='Relative radial velocity'
\COLUMN_RADIAL_VELOCITY_UNCERTAINTY='Uncertainty in RADIAL_VELOCITY'
|          HJD|Radial_Velocity|Radial_Velocity_Uncertainty|
|       double|         double|                     double|
|         days|          m / s|                      m / s|
|         null|           null|                       null|
  2447048.6994   869.450012207                   6.8499994 
 2447331.86161   822.808166504                   6.3951445 
  2447373.8722   849.719970703                   6.6999993 
  2447391.8269   837.570007324                        5.75 
  2447579.0208   833.090026855                       10.75 
  2447708.8429           801.5                   8.1999998 
   2447846.615   792.719970703                   8.2799997 
 2448113.74873      730.453125                    6.631052 
 2448114.80619   757.035522461                   7.1098943 
 2448437.91697   692.442138672                   7.1290359 
  2448745.9236   674.369995117                   7.1799994 
  2448779.8921   668.737060547                   6.9940386 
 2448799.87323   666.079101562                   5.3760095 
 2448832.75301   662.662231445                   4.6151443 
 2448833.74425   663.352783203                   5.1228971 
 2448846.69233   661.987731934                   5.4857488 
 2448847.79262   663.342163086                   2.1840701 
 2448855.66039   662.338623047                   4.3174891 
 2448857.70378   671.431762695                   4.2763033 
 2448891.64388   665.819763184                   4.4930372 
  2448905.6623   653.789978027                   6.1599998 
 2449069.05025   641.502929688                   5.4052548 
 2449122.89903   638.046630859                   5.4238377 
 2449124.89327   635.687866211                   6.1296806 
 2449210.72176    620.31427002                   4.6658645 
  2449480.9646   578.960021973                   7.3600001 
  2449481.9056   582.789978027                   9.3500004 
 2449587.70607   577.292236328                   4.6955285 
 2449601.65642   568.225708008                   4.8571892 
