\STAR_ID                                  = "HD 3651"
\DATA_CATEGORY                            = "Planet Radial Velocity Curve"
\NUMBER_OF_POINTS                         = "112"
\TIME_REFERENCE_FRAME                     = "JD"
\MINIMUM_DATE                             = "2447047.854"
\DATE_UNITS                               = "days"
\MAXIMUM_DATE                             = "2452631.640"
\MINIMUM_VALUE                            = "-35.84"
\VALUE_UNITS                              = "m/s"
\MAXIMUM_VALUE                            = "26.93"
\REFERENCE                                = "Fischer et al. 2003 (ApJ, 590, 1081)"
\BIBCODE                                  = "2003ApJ...590.1081F"
\TELESCOPE                                = "3.0m Shane and 0.6m CAT"
\INSTRUMENT                               = "Hamilton echelle spectrograph"
\WAVELENGTH_CALIBRATION_TECHNIQUE         = "Iodine"
\OBSERVATORY_SITE                         = "Lick Observatory, California"
\COLUMN_JD                                = "Julian date of observation"
\COLUMN_RADIAL_VELOCITY                   = "Radial velocity relative to barycenter"
\COLUMN_RADIAL_VELOCITY_UNCERTAINTY       = "Uncertainty in RADIAL_VELOCITY"
|          JD | Radial_Velocity | Radial_Velocity_Uncertainty |
|      double |          double |                      double |
|        days |             m/s |                         m/s |
  2447047.854             13.74                          7.88
  2447374.940             -3.19                          7.15
  2447430.758              9.30                          6.65
  2447846.849             -7.82                          8.95
  2448113.959             -4.21                          9.31
  2448199.717            -13.79                          8.41
  2448645.680             -3.08                         10.52
  2448845.939             15.77                          7.16
  2448846.983             26.93                          6.16
  2448905.861             19.52                          6.97
  2448991.737            -10.76                          7.00
  2449306.678            -22.83                          5.98
  2449349.646              1.80                          9.17
  2449588.915             19.98                          6.25
  2449603.889              3.66                          6.12
  2449622.835            -15.49                          8.62
  2449680.681             12.47                          4.63
  2450004.929            -10.21                          3.22
  2450072.696            -22.48                          3.41
  2450087.678              7.03                          3.34
  2450121.626             -5.52                          4.50
  2450124.631            -13.36                          4.62
  2450125.623            -15.74                          3.82
  2450126.629             -8.18                          4.42
  2450127.652            -11.71                          4.66
  2450128.633            -16.66                          4.14
  2450298.990              3.82                          2.31
  2450300.006             -3.58                          2.81
  2450300.881              2.15                          2.97
  2450304.920              0.53                          2.82
  2450305.910             -3.56                          3.41
  2450307.921             -1.58                          3.32
  2450308.860             -5.22                          2.73
  2450309.904             -5.07                          3.32
  2450310.872             -4.23                          3.06
  2450311.884              0.77                          2.16
  2450326.907             10.35                          3.28
  2450421.677             -9.28                          2.56
  2450437.723            -16.54                          2.96
  2450441.698            -16.34                          3.06
  2450640.977             11.99                          3.35
  2450655.974              7.24                          2.99
  2450656.929              5.84                          3.26
  2450681.973             -1.60                          3.21
  2450767.720              0.36                          3.73
  2450793.708              0.72                          3.06
  2451046.934             -2.96                          4.98
  2451130.693            -35.84                          5.99
  2451175.627             -8.20                          6.65
  2451825.747              8.62                          5.33
  2451880.668             -9.94                          4.06
  2452120.894            -16.08                          5.27
  2452157.848              6.20                          4.22
  2452158.878              2.71                          4.19
  2452159.844              0.44                          3.85
  2452160.875             -3.58                          5.13
  2452161.856              2.98                          3.90
  2452182.806            -13.58                          4.54
  2452183.795            -23.55                          4.89
  2452185.801            -18.80                          2.93
  2452186.800            -19.63                          3.03
  2452189.829            -19.12                          2.96
  2452200.822              6.67                          2.87
  2452201.829              6.77                          3.00
  2452202.762              6.83                          3.94
  2452203.760             12.73                          3.05
  2452204.767              7.59                          2.78
  2452214.775              9.07                          3.18
  2452216.728              1.48                          3.08
  2452218.747              4.12                          3.04
  2452220.735             -8.27                          3.22
  2452221.793              0.00                          4.09
  2452241.639            -22.49                          2.33
  2452474.923              8.35                          3.34
  2452475.924              5.29                          3.52
  2452476.936             -6.97                          3.76
  2452477.935             -1.69                          3.43
  2452478.914              1.02                          2.87
  2452491.866            -18.31                          2.82
  2452493.918            -29.99                          2.72
  2452508.908              4.57                          2.59
  2452509.844              7.87                          2.80
  2452510.944             17.18                          4.13
  2452511.961              5.08                          2.79
  2452512.932              2.39                          2.16
  2452513.934              2.58                          2.82
  2452514.915             10.82                          3.46
  2452515.869              4.88                          3.60
  2452516.917             10.10                          5.12
  2452520.885              4.36                          2.82
  2452522.843             11.10                          3.73
  2452523.877             -0.69                          2.61
  2452524.856              0.61                          3.30
  2452534.869            -15.28                          3.96
  2452535.897            -16.28                          2.43
  2452552.811            -13.87                          2.24
  2452553.773             -9.29                          2.30
  2452554.767             -9.36                          2.56
  2452572.760              8.05                          3.30
  2452574.835              7.70                          4.20
  2452582.787              0.48                          2.12
  2452583.747              7.00                          2.48
  2452593.699              3.56                          2.29
  2452594.747              3.65                          2.51
  2452597.685              0.16                          2.29
  2452599.782              4.03                          2.54
  2452600.717             -1.72                          2.17
  2452601.712             -6.69                          2.19
  2452612.637            -17.36                          3.67
  2452613.635            -13.00                          1.93
  2452627.747             -5.35                          2.05
  2452631.640             12.73                          2.37
