\STAR_ID='HD 142373'
\DATA_CATEGORY='Planet Radial Velocity Curve'
\NUMBER_OF_POINTS='61'
\TIME_REFERENCE_FRAME='HJD'
\MINIMUM_DATE='2449802.03852'
\DATE_UNITS='days'
\MAXIMUM_DATE='2454622.81582'
\MINIMUM_VALUE='-18.2900009'
\VALUE_UNITS='m/s'
\MAXIMUM_VALUE='27.75'
\REFERENCE='Howard & Fulton, 2016'
\BIBCODE='2016arXiv160603134H'
\TELESCOPE='3.0m Shane'
\INSTRUMENT='l: Hamilton Spectrograph post-dewar 16 (after November 1994)'
\WAVELENGTH_CALIBRATION_TECHNIQUE='Iodine'
\OBSERVATORY_SITE='Lick Observatory, California'
\COLUMN_RADIAL_VELOCITY='Relative radial velocity'
\COLUMN_RADIAL_VELOCITY_UNCERTAINTY='Uncertainty in RADIAL_VELOCITY'
|          HJD|Radial_Velocity|Radial_Velocity_Uncertainty|
|       double|         double|                     double|
|         days|          m / s|                      m / s|
|         null|           null|                       null|
 2449802.03852       9.8177795                   2.8397644 
 2449914.79883            6.77                   2.1700001 
 2449942.68784      13.0162859                    1.735993 
 2450186.92445      20.2914543                   2.4332654 
 2450202.96338      13.6077366                   3.4117203 
 2450263.73438       9.3199997                   2.0799999 
 2450299.70801       8.1499996                        2.51 
 2450503.06152           -1.49                        4.23 
 2450610.81152       8.0299997                   2.3199999 
 2450614.78418      11.1899996                   2.8900001 
 2450640.74805       2.1400001                        2.95 
 2450655.72266             4.5                   2.3199999 
 2450893.03681       9.6700001                   3.0799999 
 2450979.79199           27.75                   3.6199996 
 2451005.75195      19.5699997                   3.5699999 
 2451298.92308       7.1799998                        3.03 
 2451299.83789           13.71                   2.8699999 
 2451627.97656      12.2700005                        3.95 
 2452085.76953      16.3099995                   3.1199999 
  2452101.7354      -5.3329463                   2.4602401 
 2452105.72474      15.3979797                   2.4230707 
 2452120.74121      13.9099998                   3.1400003 
 2452121.70871       11.162406                   2.0139148 
   2452122.734       5.8913312                   2.1701512 
 2452429.79785     -13.0900002                   2.5799999 
 2452449.79883      14.9200001                   2.8800001 
   2452450.799      20.7073708                   2.1345847 
  2452451.8567      16.8929062                   2.0231876 
 2452797.81316     -10.1621742                   1.4443871 
 2453072.99414       2.1199999                        2.99 
  2453081.0459      -5.1799998                        3.28 
 2453107.91211      -4.4499998                   3.0799999 
 2453363.09447           -7.52                         3.2 
 2453364.09802      -4.6799998                        3.03 
 2453461.00594      -4.1900001                   3.0199997 
 2453474.97073            -5.0                   3.1199999 
  2453475.8901           -3.27                        3.22 
 2453476.84194     -12.5900002                        2.78 
 2453477.86799     -14.9300003                   2.6800001 
 2453478.93064     -17.3700008                   2.9100001 
  2453479.9261     -18.2900009                   3.1099999 
 2453511.80009            -9.5                        2.49 
 2453512.81103      -6.4499998                        2.71 
 2453523.80632           -0.65                   2.8399999 
 2453541.79533       2.9988911                    2.599529 
 2453553.73143      -8.5100002                        2.53 
 2453554.72773      -2.8299999                   3.0799999 
 2453555.72883       8.5100002                   2.6200001 
 2453556.72749      -7.8699999                   2.6800001 
 2453558.77075      -2.9918957                   2.1832848 
 2453559.78292      -0.6961244                   2.2606213 
 2453745.09111      -5.4000001                   2.9000001 
 2453868.83251          -13.71                   3.0899999 
  2453897.7816       7.3984599                   2.1508048 
 2454196.91624      -6.6599998                   3.0199997 
 2454253.77755       3.5340145                   1.8134096 
 2454254.75401       2.6912668                   1.5037704 
 2454549.00847      -5.8499999                   3.0700002 
 2454597.89953       4.5035872                   1.8026305 
 2454598.86815      -0.9726633                   2.8264866 
 2454622.81582       -4.745512                    1.394202 
